LabVIEW Measurement	
Writer_Version	2
Reader_Version	2
Separator	Tab
Decimal_Separator	.
Multi_Headings	No
X_Columns	Multi
Time_Pref	Relative
Operator	TG lab
Date	2015/03/07
Time	10:53:36.9862933158874511719
***End_of_Header***	
	
Channels	1	
Samples	2000	
Date	1903/12/31	
Time	19:00:00	
X_Dimension	Time	
X0	0.0000000000000000E+0	
Delta_X	5.000000E-11	
***End_of_Header***		
X_Value	Untitled	Comment
0.000000	0.001663
5.000000E-11	0.001694
1.000000E-10	0.001731
1.500000E-10	0.001888
2.000000E-10	0.001925
2.500000E-10	0.001981
3.000000E-10	0.001991
3.500000E-10	0.001947
4.000000E-10	0.001875
4.500000E-10	0.001900
5.000000E-10	0.001863
5.500000E-10	0.001847
6.000000E-10	0.001744
6.500000E-10	0.001766
7.000000E-10	0.001744
7.500000E-10	0.001697
8.000000E-10	0.001684
8.500000E-10	0.001594
9.000000E-10	0.001541
9.500000E-10	0.001541
1.000000E-9	0.001538
1.050000E-9	0.001606
1.100000E-9	0.001513
1.150000E-9	0.001531
1.200000E-9	0.001513
1.250000E-9	0.001575
1.300000E-9	0.001694
1.350000E-9	0.001753
1.400000E-9	0.001766
1.450000E-9	0.002019
1.500000E-9	0.002056
1.550000E-9	0.002075
1.600000E-9	0.002069
1.650000E-9	0.002162
1.700000E-9	0.002087
1.750000E-9	0.002156
1.800000E-9	0.002109
1.850000E-9	0.002138
1.900000E-9	0.002191
1.950000E-9	0.002225
2.000000E-9	0.002328
2.050000E-9	0.002353
2.100000E-9	0.002441
2.150000E-9	0.002538
2.200000E-9	0.002450
2.250000E-9	0.002547
2.300000E-9	0.002450
2.350000E-9	0.002566
2.400000E-9	0.002481
2.450000E-9	0.002475
2.500000E-9	0.002491
2.550000E-9	0.002534
2.600000E-9	0.002584
2.650000E-9	0.002647
2.700000E-9	0.002675
2.750000E-9	0.002747
2.800000E-9	0.002603
2.850000E-9	0.002631
2.900000E-9	0.002572
2.950000E-9	0.002528
3.000000E-9	0.002534
3.050000E-9	0.002466
3.100000E-9	0.002363
3.150000E-9	0.002228
3.200000E-9	0.002225
3.250000E-9	0.002359
3.300000E-9	0.002359
3.350000E-9	0.002559
3.400000E-9	0.002453
3.450000E-9	0.002672
3.500000E-9	0.002669
3.550000E-9	0.002781
3.600000E-9	0.002866
3.650000E-9	0.002716
3.700000E-9	0.002716
3.750000E-9	0.002697
3.800000E-9	0.002609
3.850000E-9	0.002584
3.900000E-9	0.002569
3.950000E-9	0.002616
4.000000E-9	0.002763
4.050000E-9	0.002900
4.100000E-9	0.003041
4.150000E-9	0.003269
4.200000E-9	0.003553
4.250000E-9	0.003716
4.300000E-9	0.003988
4.350000E-9	0.004325
4.400000E-9	0.004738
4.450000E-9	0.005163
4.500000E-9	0.005681
4.550000E-9	0.006288
4.600000E-9	0.006869
4.650000E-9	0.007716
4.700000E-9	0.008484
4.750000E-9	0.009334
4.800000E-9	0.010016
4.850000E-9	0.011084
4.900000E-9	0.011994
4.950000E-9	0.013100
5.000000E-9	0.014134
5.050000E-9	0.015484
5.100000E-9	0.016716
5.150000E-9	0.018200
5.200000E-9	0.019669
5.250000E-9	0.021100
5.300000E-9	0.022578
5.350000E-9	0.023950
5.400000E-9	0.025025
5.450000E-9	0.025784
5.500000E-9	0.026081
5.550000E-9	0.026081
5.600000E-9	0.025509
5.650000E-9	0.024581
5.700000E-9	0.023369
5.750000E-9	0.021891
5.800000E-9	0.020341
5.850000E-9	0.018819
5.900000E-9	0.017328
5.950000E-9	0.016084
6.000000E-9	0.015066
6.050000E-9	0.014544
6.100000E-9	0.014381
6.150000E-9	0.014478
6.200000E-9	0.014797
6.250000E-9	0.015356
6.300000E-9	0.016013
6.350000E-9	0.016456
6.400000E-9	0.016878
6.450000E-9	0.016916
6.500000E-9	0.016706
6.550000E-9	0.016162
6.600000E-9	0.015466
6.650000E-9	0.014316
6.700000E-9	0.013188
6.750000E-9	0.011959
6.800000E-9	0.010663
6.850000E-9	0.009600
6.900000E-9	0.008641
6.950000E-9	0.008194
7.000000E-9	0.007884
7.050000E-9	0.007966
7.100000E-9	0.008141
7.150000E-9	0.008744
7.200000E-9	0.009328
7.250000E-9	0.010094
7.300000E-9	0.010869
7.350000E-9	0.011403
7.400000E-9	0.011741
7.450000E-9	0.011659
7.500000E-9	0.011413
7.550000E-9	0.010906
7.600000E-9	0.010069
7.650000E-9	0.009022
7.700000E-9	0.007862
7.750000E-9	0.006697
7.800000E-9	0.005769
7.850000E-9	0.005038
7.900000E-9	0.004559
7.950000E-9	0.004444
8.000000E-9	0.004619
8.050000E-9	0.005125
8.100000E-9	0.005838
8.150000E-9	0.006597
8.200000E-9	0.007431
8.250000E-9	0.008075
8.300000E-9	0.008509
8.350000E-9	0.008747
8.400000E-9	0.008756
8.450000E-9	0.008528
8.500000E-9	0.007816
8.550000E-9	0.007000
8.600000E-9	0.006003
8.650000E-9	0.004950
8.700000E-9	0.004003
8.750000E-9	0.003325
8.800000E-9	0.002572
8.850000E-9	0.002359
8.900000E-9	0.002316
8.950000E-9	0.002631
9.000000E-9	0.003284
9.050000E-9	0.004053
9.100000E-9	0.004809
9.150000E-9	0.005728
9.200000E-9	0.006441
9.250000E-9	0.006856
9.300000E-9	0.006972
9.350000E-9	0.006903
9.400000E-9	0.006597
9.450000E-9	0.005922
9.500000E-9	0.005147
9.550000E-9	0.004125
9.600000E-9	0.003197
9.650000E-9	0.002309
9.700000E-9	0.001534
9.750000E-9	0.001141
9.800000E-9	0.001056
9.850000E-9	0.001328
9.900000E-9	0.001853
9.950000E-9	0.002584
1.000000E-8	0.003522
1.005000E-8	0.004406
1.010000E-8	0.005231
1.015000E-8	0.005878
1.020000E-8	0.006394
1.025000E-8	0.006372
1.030000E-8	0.006234
1.035000E-8	0.005634
1.040000E-8	0.004938
1.045000E-8	0.004084
1.050000E-8	0.002997
1.055000E-8	0.002125
1.060000E-8	0.001338
1.065000E-8	0.000838
1.070000E-8	0.000709
1.075000E-8	0.000706
1.080000E-8	0.000953
1.085000E-8	0.001531
1.090000E-8	0.002172
1.095000E-8	0.003094
1.100000E-8	0.003938
1.105000E-8	0.004706
1.110000E-8	0.005247
1.115000E-8	0.005606
1.120000E-8	0.005709
1.125000E-8	0.005453
1.130000E-8	0.004841
1.135000E-8	0.004181
1.140000E-8	0.003219
1.145000E-8	0.002363
1.150000E-8	0.001591
1.155000E-8	0.000878
1.160000E-8	0.000447
1.165000E-8	0.000163
1.170000E-8	0.000219
1.175000E-8	0.000697
1.180000E-8	0.001400
1.185000E-8	0.002284
1.190000E-8	0.003019
1.195000E-8	0.003825
1.200000E-8	0.004550
1.205000E-8	0.004928
1.210000E-8	0.005172
1.215000E-8	0.005038
1.220000E-8	0.004575
1.225000E-8	0.003906
1.230000E-8	0.003028
1.235000E-8	0.002247
1.240000E-8	0.001437
1.245000E-8	0.000697
1.250000E-8	9.687500E-5
1.255000E-8	-0.000113
1.260000E-8	-0.000209
1.265000E-8	6.250000E-6
1.270000E-8	0.000466
1.275000E-8	0.001081
1.280000E-8	0.001894
1.285000E-8	0.002859
1.290000E-8	0.003744
1.295000E-8	0.004416
1.300000E-8	0.004834
1.305000E-8	0.004981
1.310000E-8	0.004894
1.315000E-8	0.004450
1.320000E-8	0.003800
1.325000E-8	0.003056
1.330000E-8	0.002106
1.335000E-8	0.001413
1.340000E-8	0.000713
1.345000E-8	0.000194
1.350000E-8	6.250000E-6
1.355000E-8	0.000228
1.360000E-8	0.000481
1.365000E-8	0.001247
1.370000E-8	0.001969
1.375000E-8	0.002856
1.380000E-8	0.003697
1.385000E-8	0.004494
1.390000E-8	0.004941
1.395000E-8	0.005219
1.400000E-8	0.005175
1.405000E-8	0.004809
1.410000E-8	0.004197
1.415000E-8	0.003453
1.420000E-8	0.002563
1.425000E-8	0.001753
1.430000E-8	0.000934
1.435000E-8	0.000416
1.440000E-8	5.312500E-5
1.445000E-8	-8.750000E-5
1.450000E-8	9.062500E-5
1.455000E-8	0.000525
1.460000E-8	0.001103
1.465000E-8	0.001975
1.470000E-8	0.002653
1.475000E-8	0.003381
1.480000E-8	0.003881
1.485000E-8	0.004394
1.490000E-8	0.004566
1.495000E-8	0.004309
1.500000E-8	0.003906
1.505000E-8	0.003344
1.510000E-8	0.002613
1.515000E-8	0.001850
1.520000E-8	0.001094
1.525000E-8	0.000513
1.530000E-8	6.250000E-6
1.535000E-8	-0.000281
1.540000E-8	-0.000206
1.545000E-8	0.000113
1.550000E-8	0.000700
1.555000E-8	0.001447
1.560000E-8	0.002091
1.565000E-8	0.002913
1.570000E-8	0.003541
1.575000E-8	0.004025
1.580000E-8	0.004256
1.585000E-8	0.004319
1.590000E-8	0.004150
1.595000E-8	0.003716
1.600000E-8	0.003116
1.605000E-8	0.002594
1.610000E-8	0.001791
1.615000E-8	0.001231
1.620000E-8	0.000588
1.625000E-8	0.000247
1.630000E-8	0.000109
1.635000E-8	0.000256
1.640000E-8	0.000456
1.645000E-8	0.001072
1.650000E-8	0.001622
1.655000E-8	0.002219
1.660000E-8	0.003019
1.665000E-8	0.003672
1.670000E-8	0.004047
1.675000E-8	0.004372
1.680000E-8	0.004375
1.685000E-8	0.004316
1.690000E-8	0.003781
1.695000E-8	0.003300
1.700000E-8	0.002672
1.705000E-8	0.001934
1.710000E-8	0.001306
1.715000E-8	0.000822
1.720000E-8	0.000481
1.725000E-8	0.000272
1.730000E-8	0.000291
1.735000E-8	0.000609
1.740000E-8	0.000941
1.745000E-8	0.001563
1.750000E-8	0.002134
1.755000E-8	0.002788
1.760000E-8	0.003356
1.765000E-8	0.003775
1.770000E-8	0.003928
1.775000E-8	0.003784
1.780000E-8	0.003544
1.785000E-8	0.003009
1.790000E-8	0.002475
1.795000E-8	0.001863
1.800000E-8	0.001259
1.805000E-8	0.000759
1.810000E-8	0.000425
1.815000E-8	0.000253
1.820000E-8	0.000184
1.825000E-8	0.000466
1.830000E-8	0.000778
1.835000E-8	0.001334
1.840000E-8	0.001913
1.845000E-8	0.002422
1.850000E-8	0.002963
1.855000E-8	0.003409
1.860000E-8	0.003597
1.865000E-8	0.003625
1.870000E-8	0.003528
1.875000E-8	0.003147
1.880000E-8	0.002666
1.885000E-8	0.002131
1.890000E-8	0.001556
1.895000E-8	0.001069
1.900000E-8	0.000603
1.905000E-8	0.000412
1.910000E-8	0.000319
1.915000E-8	0.000378
1.920000E-8	0.000713
1.925000E-8	0.001231
1.930000E-8	0.001738
1.935000E-8	0.002391
1.940000E-8	0.002872
1.945000E-8	0.003441
1.950000E-8	0.003856
1.955000E-8	0.004000
1.960000E-8	0.003913
1.965000E-8	0.003625
1.970000E-8	0.003216
1.975000E-8	0.002728
1.980000E-8	0.002122
1.985000E-8	0.001553
1.990000E-8	0.000913
1.995000E-8	0.000428
2.000000E-8	0.000241
2.005000E-8	0.000209
2.010000E-8	0.000328
2.015000E-8	0.000753
2.020000E-8	0.001197
2.025000E-8	0.001869
2.030000E-8	0.002447
2.035000E-8	0.002941
2.040000E-8	0.003334
2.045000E-8	0.003669
2.050000E-8	0.003744
2.055000E-8	0.003622
2.060000E-8	0.003303
2.065000E-8	0.002813
2.070000E-8	0.002266
2.075000E-8	0.001703
2.080000E-8	0.001122
2.085000E-8	0.000725
2.090000E-8	0.000366
2.095000E-8	0.000316
2.100000E-8	0.000325
2.105000E-8	0.000522
2.110000E-8	0.000844
2.115000E-8	0.001372
2.120000E-8	0.001863
2.125000E-8	0.002444
2.130000E-8	0.002878
2.135000E-8	0.003344
2.140000E-8	0.003441
2.145000E-8	0.003538
2.150000E-8	0.003203
2.155000E-8	0.002959
2.160000E-8	0.002613
2.165000E-8	0.002066
2.170000E-8	0.001372
2.175000E-8	0.000838
2.180000E-8	0.000406
2.185000E-8	0.000166
2.190000E-8	0.000103
2.195000E-8	0.000309
2.200000E-8	0.000553
2.205000E-8	0.001019
2.210000E-8	0.001453
2.215000E-8	0.002109
2.220000E-8	0.002622
2.225000E-8	0.003084
2.230000E-8	0.003484
2.235000E-8	0.003694
2.240000E-8	0.003622
2.245000E-8	0.003466
2.250000E-8	0.003053
2.255000E-8	0.002575
2.260000E-8	0.002012
2.265000E-8	0.001372
2.270000E-8	0.000881
2.275000E-8	0.000450
2.280000E-8	0.000206
2.285000E-8	0.000197
2.290000E-8	0.000409
2.295000E-8	0.000775
2.300000E-8	0.001266
2.305000E-8	0.001841
2.310000E-8	0.002331
2.315000E-8	0.002825
2.320000E-8	0.003341
2.325000E-8	0.003444
2.330000E-8	0.003378
2.335000E-8	0.003244
2.340000E-8	0.002906
2.345000E-8	0.002437
2.350000E-8	0.001881
2.355000E-8	0.001353
2.360000E-8	0.000750
2.365000E-8	0.000347
2.370000E-8	-1.250000E-5
2.375000E-8	-8.125000E-5
2.380000E-8	0.000103
2.385000E-8	0.000537
2.390000E-8	0.000909
2.395000E-8	0.001475
2.400000E-8	0.001963
2.405000E-8	0.002578
2.410000E-8	0.003091
2.415000E-8	0.003378
2.420000E-8	0.003638
2.425000E-8	0.003659
2.430000E-8	0.003463
2.435000E-8	0.003162
2.440000E-8	0.002694
2.445000E-8	0.002278
2.450000E-8	0.001791
2.455000E-8	0.001334
2.460000E-8	0.000938
2.465000E-8	0.000581
2.470000E-8	0.000463
2.475000E-8	0.000638
2.480000E-8	0.000788
2.485000E-8	0.001141
2.490000E-8	0.001541
2.495000E-8	0.001959
2.500000E-8	0.002547
2.505000E-8	0.002869
2.510000E-8	0.003203
2.515000E-8	0.003372
2.520000E-8	0.003347
2.525000E-8	0.003309
2.530000E-8	0.002856
2.535000E-8	0.002484
2.540000E-8	0.001928
2.545000E-8	0.001441
2.550000E-8	0.000991
2.555000E-8	0.000606
2.560000E-8	0.000450
2.565000E-8	0.000428
2.570000E-8	0.000422
2.575000E-8	0.000763
2.580000E-8	0.001125
2.585000E-8	0.001681
2.590000E-8	0.002059
2.595000E-8	0.002622
2.600000E-8	0.003047
2.605000E-8	0.003422
2.610000E-8	0.003478
2.615000E-8	0.003278
2.620000E-8	0.003028
2.625000E-8	0.002744
2.630000E-8	0.002213
2.635000E-8	0.001722
2.640000E-8	0.001175
2.645000E-8	0.000788
2.650000E-8	0.000597
2.655000E-8	0.000453
2.660000E-8	0.000463
2.665000E-8	0.000653
2.670000E-8	0.000944
2.675000E-8	0.001356
2.680000E-8	0.001666
2.685000E-8	0.002294
2.690000E-8	0.002697
2.695000E-8	0.003050
2.700000E-8	0.003297
2.705000E-8	0.003288
2.710000E-8	0.003153
2.715000E-8	0.002869
2.720000E-8	0.002394
2.725000E-8	0.001966
2.730000E-8	0.001497
2.735000E-8	0.001078
2.740000E-8	0.000788
2.745000E-8	0.000572
2.750000E-8	0.000506
2.755000E-8	0.000581
2.760000E-8	0.000819
2.765000E-8	0.001166
2.770000E-8	0.001609
2.775000E-8	0.002097
2.780000E-8	0.002509
2.785000E-8	0.002909
2.790000E-8	0.003200
2.795000E-8	0.003272
2.800000E-8	0.003231
2.805000E-8	0.003109
2.810000E-8	0.002728
2.815000E-8	0.002512
2.820000E-8	0.001975
2.825000E-8	0.001597
2.830000E-8	0.001088
2.835000E-8	0.000916
2.840000E-8	0.000744
2.845000E-8	0.000778
2.850000E-8	0.000794
2.855000E-8	0.001081
2.860000E-8	0.001459
2.865000E-8	0.001872
2.870000E-8	0.002206
2.875000E-8	0.002659
2.880000E-8	0.002769
2.885000E-8	0.002994
2.890000E-8	0.003022
2.895000E-8	0.002894
2.900000E-8	0.002550
2.905000E-8	0.002241
2.910000E-8	0.001697
2.915000E-8	0.001228
2.920000E-8	0.000806
2.925000E-8	0.000588
2.930000E-8	0.000291
2.935000E-8	0.000275
2.940000E-8	0.000253
2.945000E-8	0.000541
2.950000E-8	0.000938
2.955000E-8	0.001434
2.960000E-8	0.001838
2.965000E-8	0.002344
2.970000E-8	0.002744
2.975000E-8	0.002981
2.980000E-8	0.003169
2.985000E-8	0.003256
2.990000E-8	0.003147
2.995000E-8	0.002913
3.000000E-8	0.002369
3.005000E-8	0.002113
3.010000E-8	0.001641
3.015000E-8	0.001153
3.020000E-8	0.000838
3.025000E-8	0.000609
3.030000E-8	0.000525
3.035000E-8	0.000606
3.040000E-8	0.000763
3.045000E-8	0.001112
3.050000E-8	0.001472
3.055000E-8	0.001816
3.060000E-8	0.002231
3.065000E-8	0.002591
3.070000E-8	0.002772
3.075000E-8	0.002934
3.080000E-8	0.002956
3.085000E-8	0.002850
3.090000E-8	0.002628
3.095000E-8	0.002259
3.100000E-8	0.001928
3.105000E-8	0.001578
3.110000E-8	0.001256
3.115000E-8	0.001078
3.120000E-8	0.001031
3.125000E-8	0.000997
3.130000E-8	0.001094
3.135000E-8	0.001413
3.140000E-8	0.001719
3.145000E-8	0.002019
3.150000E-8	0.002416
3.155000E-8	0.002869
3.160000E-8	0.003025
3.165000E-8	0.003141
3.170000E-8	0.003184
3.175000E-8	0.003069
3.180000E-8	0.002825
3.185000E-8	0.002628
3.190000E-8	0.002075
3.195000E-8	0.001722
3.200000E-8	0.001378
3.205000E-8	0.001050
3.210000E-8	0.000844
3.215000E-8	0.000672
3.220000E-8	0.000772
3.225000E-8	0.000984
3.230000E-8	0.001272
3.235000E-8	0.001756
3.240000E-8	0.002122
3.245000E-8	0.002434
3.250000E-8	0.002666
3.255000E-8	0.002978
3.260000E-8	0.003038
3.265000E-8	0.003097
3.270000E-8	0.002872
3.275000E-8	0.002759
3.280000E-8	0.002381
3.285000E-8	0.002156
3.290000E-8	0.001813
3.295000E-8	0.001563
3.300000E-8	0.001225
3.305000E-8	0.001009
3.310000E-8	0.000928
3.315000E-8	0.001034
3.320000E-8	0.001147
3.325000E-8	0.001434
3.330000E-8	0.001675
3.335000E-8	0.002012
3.340000E-8	0.002369
3.345000E-8	0.002650
3.350000E-8	0.002769
3.355000E-8	0.002847
3.360000E-8	0.002841
3.365000E-8	0.002725
3.370000E-8	0.002475
3.375000E-8	0.002181
3.380000E-8	0.001650
3.385000E-8	0.001250
3.390000E-8	0.000975
3.395000E-8	0.000688
3.400000E-8	0.000581
3.405000E-8	0.000797
3.410000E-8	0.000953
3.415000E-8	0.001191
3.420000E-8	0.001553
3.425000E-8	0.002041
3.430000E-8	0.002281
3.435000E-8	0.002506
3.440000E-8	0.002578
3.445000E-8	0.002794
3.450000E-8	0.002791
3.455000E-8	0.002725
3.460000E-8	0.002509
3.465000E-8	0.002366
3.470000E-8	0.002147
3.475000E-8	0.001928
3.480000E-8	0.001656
3.485000E-8	0.001406
3.490000E-8	0.001231
3.495000E-8	0.001216
3.500000E-8	0.001097
3.505000E-8	0.001156
3.510000E-8	0.001300
3.515000E-8	0.001466
3.520000E-8	0.001666
3.525000E-8	0.001903
3.530000E-8	0.002166
3.535000E-8	0.002416
3.540000E-8	0.002625
3.545000E-8	0.002572
3.550000E-8	0.002484
3.555000E-8	0.002559
3.560000E-8	0.002234
3.565000E-8	0.001922
3.570000E-8	0.001575
3.575000E-8	0.001434
3.580000E-8	0.001056
3.585000E-8	0.001022
3.590000E-8	0.000997
3.595000E-8	0.001063
3.600000E-8	0.000991
3.605000E-8	0.001409
3.610000E-8	0.001569
3.615000E-8	0.001956
3.620000E-8	0.002300
3.625000E-8	0.002694
3.630000E-8	0.002816
3.635000E-8	0.003059
3.640000E-8	0.003128
3.645000E-8	0.003047
3.650000E-8	0.002841
3.655000E-8	0.002528
3.660000E-8	0.002153
3.665000E-8	0.001769
3.670000E-8	0.001300
3.675000E-8	0.001050
3.680000E-8	0.000753
3.685000E-8	0.000763
3.690000E-8	0.000794
3.695000E-8	0.001063
3.700000E-8	0.001266
3.705000E-8	0.001675
3.710000E-8	0.002041
3.715000E-8	0.002491
3.720000E-8	0.002694
3.725000E-8	0.002959
3.730000E-8	0.003034
3.735000E-8	0.003006
3.740000E-8	0.002822
3.745000E-8	0.002575
3.750000E-8	0.002144
3.755000E-8	0.001897
3.760000E-8	0.001509
3.765000E-8	0.001200
3.770000E-8	0.000959
3.775000E-8	0.000775
3.780000E-8	0.000709
3.785000E-8	0.000747
3.790000E-8	0.000931
3.795000E-8	0.001106
3.800000E-8	0.001581
3.805000E-8	0.001928
3.810000E-8	0.002219
3.815000E-8	0.002575
3.820000E-8	0.002778
3.825000E-8	0.002881
3.830000E-8	0.002853
3.835000E-8	0.002669
3.840000E-8	0.002550
3.845000E-8	0.002325
3.850000E-8	0.001963
3.855000E-8	0.001619
3.860000E-8	0.001362
3.865000E-8	0.001303
3.870000E-8	0.001112
3.875000E-8	0.001206
3.880000E-8	0.001347
3.885000E-8	0.001572
3.890000E-8	0.001628
3.895000E-8	0.001972
3.900000E-8	0.002119
3.905000E-8	0.002344
3.910000E-8	0.002506
3.915000E-8	0.002662
3.920000E-8	0.002581
3.925000E-8	0.002519
3.930000E-8	0.002297
3.935000E-8	0.001984
3.940000E-8	0.001666
3.945000E-8	0.001325
3.950000E-8	0.001091
3.955000E-8	0.000972
3.960000E-8	0.000797
3.965000E-8	0.000741
3.970000E-8	0.000884
3.975000E-8	0.001159
3.980000E-8	0.001397
3.985000E-8	0.001725
3.990000E-8	0.002066
3.995000E-8	0.002525
4.000000E-8	0.002731
4.005000E-8	0.002834
4.010000E-8	0.002672
4.015000E-8	0.002572
4.020000E-8	0.002403
4.025000E-8	0.002150
4.030000E-8	0.001763
4.035000E-8	0.001463
4.040000E-8	0.001288
4.045000E-8	0.001034
4.050000E-8	0.001091
4.055000E-8	0.001009
4.060000E-8	0.001231
4.065000E-8	0.001431
4.070000E-8	0.001541
4.075000E-8	0.001716
4.080000E-8	0.001994
4.085000E-8	0.002184
4.090000E-8	0.002359
4.095000E-8	0.002522
4.100000E-8	0.002556
4.105000E-8	0.002644
4.110000E-8	0.002544
4.115000E-8	0.002469
4.120000E-8	0.002244
4.125000E-8	0.001978
4.130000E-8	0.001600
4.135000E-8	0.001350
4.140000E-8	0.001184
4.145000E-8	0.000997
4.150000E-8	0.000944
4.155000E-8	0.001088
4.160000E-8	0.001278
4.165000E-8	0.001656
4.170000E-8	0.001941
4.175000E-8	0.002162
4.180000E-8	0.002394
4.185000E-8	0.002628
4.190000E-8	0.002741
4.195000E-8	0.002809
4.200000E-8	0.002688
4.205000E-8	0.002522
4.210000E-8	0.002478
4.215000E-8	0.002131
4.220000E-8	0.001884
4.225000E-8	0.001687
4.230000E-8	0.001437
4.235000E-8	0.001256
4.240000E-8	0.001122
4.245000E-8	0.001153
4.250000E-8	0.001184
4.255000E-8	0.001338
4.260000E-8	0.001634
4.265000E-8	0.001906
4.270000E-8	0.002181
4.275000E-8	0.002450
4.280000E-8	0.002450
4.285000E-8	0.002581
4.290000E-8	0.002594
4.295000E-8	0.002431
4.300000E-8	0.002253
4.305000E-8	0.002038
4.310000E-8	0.001803
4.315000E-8	0.001491
4.320000E-8	0.001256
4.325000E-8	0.001181
4.330000E-8	0.000969
4.335000E-8	0.000906
4.340000E-8	0.001078
4.345000E-8	0.001294
4.350000E-8	0.001388
4.355000E-8	0.001813
4.360000E-8	0.001978
4.365000E-8	0.002219
4.370000E-8	0.002478
4.375000E-8	0.002728
4.380000E-8	0.002728
4.385000E-8	0.002831
4.390000E-8	0.002662
4.395000E-8	0.002550
4.400000E-8	0.002391
4.405000E-8	0.002325
4.410000E-8	0.001816
4.415000E-8	0.001547
4.420000E-8	0.001250
4.425000E-8	0.001106
4.430000E-8	0.001109
4.435000E-8	0.001216
4.440000E-8	0.001375
4.445000E-8	0.001500
4.450000E-8	0.001650
4.455000E-8	0.001925
4.460000E-8	0.002206
4.465000E-8	0.002422
4.470000E-8	0.002575
4.475000E-8	0.002575
4.480000E-8	0.002444
4.485000E-8	0.002250
4.490000E-8	0.001984
4.495000E-8	0.001691
4.500000E-8	0.001369
4.505000E-8	0.001172
4.510000E-8	0.001009
4.515000E-8	0.000891
4.520000E-8	0.000731
4.525000E-8	0.000828
4.530000E-8	0.000988
4.535000E-8	0.001191
4.540000E-8	0.001466
4.545000E-8	0.001731
4.550000E-8	0.001919
4.555000E-8	0.002091
4.560000E-8	0.002144
4.565000E-8	0.002334
4.570000E-8	0.002200
4.575000E-8	0.002166
4.580000E-8	0.002069
4.585000E-8	0.001853
4.590000E-8	0.001653
4.595000E-8	0.001388
4.600000E-8	0.001150
4.605000E-8	0.001044
4.610000E-8	0.000953
4.615000E-8	0.000938
4.620000E-8	0.001016
4.625000E-8	0.001278
4.630000E-8	0.001394
4.635000E-8	0.001588
4.640000E-8	0.001741
4.645000E-8	0.002022
