LabVIEW Measurement	
Writer_Version	2
Reader_Version	2
Separator	Tab
Decimal_Separator	.
Multi_Headings	No
X_Columns	Multi
Time_Pref	Relative
Operator	TG lab
Date	2015/03/06
Time	19:41:15.4832587242126464844
***End_of_Header***	
	
Channels	1	
Samples	2000	
Date	2015/03/06	
Time	19:41:15.4832587242126464844	
X_Dimension	Time	
X0	0.0000000000000000E+0	
Delta_X	5.000000E-11	
***End_of_Header***		
X_Value	Untitled	Comment
0.000000	0.002766
5.000000E-11	0.002816
1.000000E-10	0.002719
1.500000E-10	0.002822
2.000000E-10	0.002753
2.500000E-10	0.002884
3.000000E-10	0.002713
3.500000E-10	0.002662
4.000000E-10	0.002572
4.500000E-10	0.002375
5.000000E-10	0.002159
5.500000E-10	0.002147
6.000000E-10	0.002175
6.500000E-10	0.002125
7.000000E-10	0.002128
7.500000E-10	0.002144
8.000000E-10	0.002028
8.500000E-10	0.002069
9.000000E-10	0.002197
9.500000E-10	0.002237
1.000000E-9	0.002206
1.050000E-9	0.002250
1.100000E-9	0.002134
1.150000E-9	0.002091
1.200000E-9	0.001956
1.250000E-9	0.001941
1.300000E-9	0.001816
1.350000E-9	0.001931
1.400000E-9	0.001900
1.450000E-9	0.001931
1.500000E-9	0.001950
1.550000E-9	0.001956
1.600000E-9	0.002063
1.650000E-9	0.002000
1.700000E-9	0.002041
1.750000E-9	0.002134
1.800000E-9	0.002150
1.850000E-9	0.002166
1.900000E-9	0.002203
1.950000E-9	0.002219
2.000000E-9	0.002131
2.050000E-9	0.002209
2.100000E-9	0.002166
2.150000E-9	0.002200
2.200000E-9	0.002122
2.250000E-9	0.002125
2.300000E-9	0.002047
2.350000E-9	0.002178
2.400000E-9	0.002053
2.450000E-9	0.001953
2.500000E-9	0.001844
2.550000E-9	0.001931
2.600000E-9	0.001744
2.650000E-9	0.001906
2.700000E-9	0.001878
2.750000E-9	0.001831
2.800000E-9	0.001822
2.850000E-9	0.001822
2.900000E-9	0.001784
2.950000E-9	0.001766
3.000000E-9	0.001638
3.050000E-9	0.001628
3.100000E-9	0.001616
3.150000E-9	0.001669
3.200000E-9	0.001619
3.250000E-9	0.001578
3.300000E-9	0.001556
3.350000E-9	0.001516
3.400000E-9	0.001488
3.450000E-9	0.001606
3.500000E-9	0.001600
3.550000E-9	0.001603
3.600000E-9	0.001603
3.650000E-9	0.001591
3.700000E-9	0.001513
3.750000E-9	0.001556
3.800000E-9	0.001522
3.850000E-9	0.001531
3.900000E-9	0.001416
3.950000E-9	0.001409
4.000000E-9	0.001341
4.050000E-9	0.001469
4.100000E-9	0.001528
4.150000E-9	0.001647
4.200000E-9	0.001713
4.250000E-9	0.001731
4.300000E-9	0.001622
4.350000E-9	0.001694
4.400000E-9	0.001691
4.450000E-9	0.001728
4.500000E-9	0.001600
4.550000E-9	0.001553
4.600000E-9	0.001441
4.650000E-9	0.001303
4.700000E-9	0.001069
4.750000E-9	0.000903
4.800000E-9	0.000500
4.850000E-9	-8.125000E-5
4.900000E-9	-0.000888
4.950000E-9	-0.001884
5.000000E-9	-0.003188
5.050000E-9	-0.004816
5.100000E-9	-0.006797
5.150000E-9	-0.009137
5.200000E-9	-0.011928
5.250000E-9	-0.014747
5.300000E-9	-0.017959
5.350000E-9	-0.020941
5.400000E-9	-0.023750
5.450000E-9	-0.026175
5.500000E-9	-0.028238
5.550000E-9	-0.029728
5.600000E-9	-0.030834
5.650000E-9	-0.031244
5.700000E-9	-0.031284
5.750000E-9	-0.030769
5.800000E-9	-0.029916
5.850000E-9	-0.028706
5.900000E-9	-0.027094
5.950000E-9	-0.025478
6.000000E-9	-0.023622
6.050000E-9	-0.021847
6.100000E-9	-0.020034
6.150000E-9	-0.018413
6.200000E-9	-0.017153
6.250000E-9	-0.016172
6.300000E-9	-0.015550
6.350000E-9	-0.015363
6.400000E-9	-0.015441
6.450000E-9	-0.015903
6.500000E-9	-0.016519
6.550000E-9	-0.017294
6.600000E-9	-0.018147
6.650000E-9	-0.018966
6.700000E-9	-0.019750
6.750000E-9	-0.020397
6.800000E-9	-0.020834
6.850000E-9	-0.020988
6.900000E-9	-0.021000
6.950000E-9	-0.020656
7.000000E-9	-0.020313
7.050000E-9	-0.019659
7.100000E-9	-0.018697
7.150000E-9	-0.017609
7.200000E-9	-0.016284
7.250000E-9	-0.014947
7.300000E-9	-0.013494
7.350000E-9	-0.012009
7.400000E-9	-0.010697
7.450000E-9	-0.009447
7.500000E-9	-0.008472
7.550000E-9	-0.007697
7.600000E-9	-0.007372
7.650000E-9	-0.007231
7.700000E-9	-0.007456
7.750000E-9	-0.008059
7.800000E-9	-0.008756
7.850000E-9	-0.009547
7.900000E-9	-0.010484
7.950000E-9	-0.011434
8.000000E-9	-0.012384
8.050000E-9	-0.013159
8.100000E-9	-0.013684
8.150000E-9	-0.013972
8.200000E-9	-0.013944
8.250000E-9	-0.013562
8.300000E-9	-0.013041
8.350000E-9	-0.012088
8.400000E-9	-0.010994
8.450000E-9	-0.009797
8.500000E-9	-0.008625
8.550000E-9	-0.007300
8.600000E-9	-0.006106
8.650000E-9	-0.004850
8.700000E-9	-0.003916
8.750000E-9	-0.003197
8.800000E-9	-0.002603
8.850000E-9	-0.002375
8.900000E-9	-0.002519
8.950000E-9	-0.002803
9.000000E-9	-0.003381
9.050000E-9	-0.004156
9.100000E-9	-0.005178
9.150000E-9	-0.006056
9.200000E-9	-0.007016
9.250000E-9	-0.007972
9.300000E-9	-0.008788
9.350000E-9	-0.009416
9.400000E-9	-0.009913
9.450000E-9	-0.010122
9.500000E-9	-0.010131
9.550000E-9	-0.009659
9.600000E-9	-0.008919
9.650000E-9	-0.007909
9.700000E-9	-0.006938
9.750000E-9	-0.005634
9.800000E-9	-0.004294
9.850000E-9	-0.003012
9.900000E-9	-0.001894
9.950000E-9	-0.000800
1.000000E-8	-2.187500E-5
1.005000E-8	0.000563
1.010000E-8	0.000763
1.015000E-8	0.000684
1.020000E-8	0.000344
1.025000E-8	-0.000272
1.030000E-8	-0.001072
1.035000E-8	-0.001947
1.040000E-8	-0.003006
1.045000E-8	-0.004009
1.050000E-8	-0.004934
1.055000E-8	-0.005797
1.060000E-8	-0.006650
1.065000E-8	-0.006994
1.070000E-8	-0.007322
1.075000E-8	-0.007313
1.080000E-8	-0.007150
1.085000E-8	-0.006556
1.090000E-8	-0.005744
1.095000E-8	-0.004781
1.100000E-8	-0.003672
1.105000E-8	-0.002381
1.110000E-8	-0.001222
1.115000E-8	-9.375000E-6
1.120000E-8	0.000919
1.125000E-8	0.001919
1.130000E-8	0.002369
1.135000E-8	0.002678
1.140000E-8	0.002609
1.145000E-8	0.002231
1.150000E-8	0.001559
1.155000E-8	0.000766
1.160000E-8	-0.000291
1.165000E-8	-0.001313
1.170000E-8	-0.002497
1.175000E-8	-0.003494
1.180000E-8	-0.004428
1.185000E-8	-0.005163
1.190000E-8	-0.005600
1.195000E-8	-0.005841
1.200000E-8	-0.005728
1.205000E-8	-0.005522
1.210000E-8	-0.005000
1.215000E-8	-0.004134
1.220000E-8	-0.003191
1.225000E-8	-0.002203
1.230000E-8	-0.001172
1.235000E-8	5.312500E-5
1.240000E-8	0.001019
1.245000E-8	0.001856
1.250000E-8	0.002522
1.255000E-8	0.003078
1.260000E-8	0.003253
1.265000E-8	0.003350
1.270000E-8	0.003022
1.275000E-8	0.002525
1.280000E-8	0.001744
1.285000E-8	0.000891
1.290000E-8	-0.000178
1.295000E-8	-0.001156
1.300000E-8	-0.002134
1.305000E-8	-0.002944
1.310000E-8	-0.003728
1.315000E-8	-0.004112
1.320000E-8	-0.004363
1.325000E-8	-0.004444
1.330000E-8	-0.004134
1.335000E-8	-0.003647
1.340000E-8	-0.002806
1.345000E-8	-0.001941
1.350000E-8	-0.000900
1.355000E-8	0.000209
1.360000E-8	0.001319
1.365000E-8	0.002341
1.370000E-8	0.003316
1.375000E-8	0.004094
1.380000E-8	0.004500
1.385000E-8	0.004859
1.390000E-8	0.004825
1.395000E-8	0.004591
1.400000E-8	0.003978
1.405000E-8	0.003309
1.410000E-8	0.002300
1.415000E-8	0.001281
1.420000E-8	0.000147
1.425000E-8	-0.000888
1.430000E-8	-0.001809
1.435000E-8	-0.002694
1.440000E-8	-0.003484
1.445000E-8	-0.003869
1.450000E-8	-0.004034
1.455000E-8	-0.003859
1.460000E-8	-0.003481
1.465000E-8	-0.002706
1.470000E-8	-0.001863
1.475000E-8	-0.000719
1.480000E-8	0.000300
1.485000E-8	0.001550
1.490000E-8	0.002656
1.495000E-8	0.003666
1.500000E-8	0.004353
1.505000E-8	0.004881
1.510000E-8	0.005106
1.515000E-8	0.005122
1.520000E-8	0.004863
1.525000E-8	0.004141
1.530000E-8	0.003434
1.535000E-8	0.002572
1.540000E-8	0.001469
1.545000E-8	0.000434
1.550000E-8	-0.000638
1.555000E-8	-0.001522
1.560000E-8	-0.002297
1.565000E-8	-0.002841
1.570000E-8	-0.003147
1.575000E-8	-0.003109
1.580000E-8	-0.002944
1.585000E-8	-0.002494
1.590000E-8	-0.001934
1.595000E-8	-0.001025
1.600000E-8	-6.875000E-5
1.605000E-8	0.001041
1.610000E-8	0.002050
1.615000E-8	0.003184
1.620000E-8	0.004019
1.625000E-8	0.004769
1.630000E-8	0.005366
1.635000E-8	0.005641
1.640000E-8	0.005619
1.645000E-8	0.005434
1.650000E-8	0.004984
1.655000E-8	0.004387
1.660000E-8	0.003453
1.665000E-8	0.002587
1.670000E-8	0.001659
1.675000E-8	0.000650
1.680000E-8	-0.000250
1.685000E-8	-0.000988
1.690000E-8	-0.001594
1.695000E-8	-0.002103
1.700000E-8	-0.002303
1.705000E-8	-0.002144
1.710000E-8	-0.001972
1.715000E-8	-0.001372
1.720000E-8	-0.000553
1.725000E-8	0.000341
1.730000E-8	0.001284
1.735000E-8	0.002375
1.740000E-8	0.003325
1.745000E-8	0.004328
1.750000E-8	0.004984
1.755000E-8	0.005534
1.760000E-8	0.005797
1.765000E-8	0.005706
1.770000E-8	0.005541
1.775000E-8	0.005028
1.780000E-8	0.004303
1.785000E-8	0.003628
1.790000E-8	0.002625
1.795000E-8	0.001716
1.800000E-8	0.000709
1.805000E-8	-0.000134
1.810000E-8	-0.000866
1.815000E-8	-0.001366
1.820000E-8	-0.001913
1.825000E-8	-0.001944
1.830000E-8	-0.001922
1.835000E-8	-0.001666
1.840000E-8	-0.001184
1.845000E-8	-0.000394
1.850000E-8	0.000400
1.855000E-8	0.001366
1.860000E-8	0.002359
1.865000E-8	0.003363
1.870000E-8	0.004131
1.875000E-8	0.004875
1.880000E-8	0.005263
1.885000E-8	0.005591
1.890000E-8	0.005662
1.895000E-8	0.005469
1.900000E-8	0.005038
1.905000E-8	0.004463
1.910000E-8	0.003750
1.915000E-8	0.002813
1.920000E-8	0.001872
1.925000E-8	0.000978
1.930000E-8	3.125000E-6
1.935000E-8	-0.000644
1.940000E-8	-0.001409
1.945000E-8	-0.001703
1.950000E-8	-0.001800
1.955000E-8	-0.001691
1.960000E-8	-0.001403
1.965000E-8	-0.000850
1.970000E-8	-0.000172
1.975000E-8	0.000713
1.980000E-8	0.001666
1.985000E-8	0.002531
1.990000E-8	0.003378
1.995000E-8	0.004331
2.000000E-8	0.004931
2.005000E-8	0.005294
2.010000E-8	0.005597
2.015000E-8	0.005797
2.020000E-8	0.005563
2.025000E-8	0.005178
2.030000E-8	0.004725
2.035000E-8	0.004125
2.040000E-8	0.003087
2.045000E-8	0.002303
2.050000E-8	0.001350
2.055000E-8	0.000616
2.060000E-8	-9.062500E-5
2.065000E-8	-0.000697
2.070000E-8	-0.001153
2.075000E-8	-0.001281
2.080000E-8	-0.001409
2.085000E-8	-0.001219
2.090000E-8	-0.000922
2.095000E-8	-0.000300
2.100000E-8	0.000388
2.105000E-8	0.001175
2.110000E-8	0.002044
2.115000E-8	0.002925
2.120000E-8	0.003744
2.125000E-8	0.004431
2.130000E-8	0.004900
2.135000E-8	0.005338
2.140000E-8	0.005484
2.145000E-8	0.005469
2.150000E-8	0.005044
2.155000E-8	0.004644
2.160000E-8	0.003900
2.165000E-8	0.003075
2.170000E-8	0.002103
2.175000E-8	0.001388
2.180000E-8	0.000544
2.185000E-8	-0.000163
2.190000E-8	-0.000772
2.195000E-8	-0.001088
2.200000E-8	-0.001300
2.205000E-8	-0.001144
2.210000E-8	-0.000878
2.215000E-8	-0.000466
2.220000E-8	0.000131
2.225000E-8	0.000728
2.230000E-8	0.001556
2.235000E-8	0.002444
2.240000E-8	0.003334
2.245000E-8	0.004044
2.250000E-8	0.004722
2.255000E-8	0.005153
2.260000E-8	0.005422
2.265000E-8	0.005609
2.270000E-8	0.005534
2.275000E-8	0.005363
2.280000E-8	0.004841
2.285000E-8	0.004122
2.290000E-8	0.003350
2.295000E-8	0.002556
2.300000E-8	0.001775
2.305000E-8	0.001009
2.310000E-8	0.000456
2.315000E-8	-4.375000E-5
2.320000E-8	-0.000541
2.325000E-8	-0.000719
2.330000E-8	-0.000672
2.335000E-8	-0.000469
2.340000E-8	-0.000269
2.345000E-8	0.000363
2.350000E-8	0.000916
2.355000E-8	0.001647
2.360000E-8	0.002512
2.365000E-8	0.003266
2.370000E-8	0.004006
2.375000E-8	0.004706
2.380000E-8	0.005234
2.385000E-8	0.005625
2.390000E-8	0.005653
2.395000E-8	0.005653
2.400000E-8	0.005291
2.405000E-8	0.004788
2.410000E-8	0.004141
2.415000E-8	0.003459
2.420000E-8	0.002547
2.425000E-8	0.001881
2.430000E-8	0.001069
2.435000E-8	0.000416
2.440000E-8	-0.000206
2.445000E-8	-0.000616
2.450000E-8	-0.000872
2.455000E-8	-0.000772
2.460000E-8	-0.000759
2.465000E-8	-0.000394
2.470000E-8	0.000181
2.475000E-8	0.001016
2.480000E-8	0.001669
2.485000E-8	0.002428
2.490000E-8	0.003188
2.495000E-8	0.004050
2.500000E-8	0.004741
2.505000E-8	0.005353
2.510000E-8	0.005575
2.515000E-8	0.005772
2.520000E-8	0.005656
2.525000E-8	0.005519
2.530000E-8	0.005094
2.535000E-8	0.004662
2.540000E-8	0.004013
2.545000E-8	0.003328
2.550000E-8	0.002531
2.555000E-8	0.001800
2.560000E-8	0.001028
2.565000E-8	0.000463
2.570000E-8	3.437500E-5
2.575000E-8	-0.000150
2.580000E-8	-0.000431
2.585000E-8	-0.000216
2.590000E-8	-6.875000E-5
2.595000E-8	0.000391
2.600000E-8	0.000825
2.605000E-8	0.001528
2.610000E-8	0.002228
2.615000E-8	0.002984
2.620000E-8	0.003663
2.625000E-8	0.004350
2.630000E-8	0.004828
2.635000E-8	0.005128
2.640000E-8	0.005188
2.645000E-8	0.005297
2.650000E-8	0.005103
2.655000E-8	0.004819
2.660000E-8	0.004281
2.665000E-8	0.003781
2.670000E-8	0.003138
2.675000E-8	0.002516
2.680000E-8	0.001666
2.685000E-8	0.001191
2.690000E-8	0.000534
2.695000E-8	0.000131
2.700000E-8	-0.000206
2.705000E-8	-0.000388
2.710000E-8	-0.000438
2.715000E-8	-0.000184
2.720000E-8	9.687500E-5
2.725000E-8	0.000666
2.730000E-8	0.001200
2.735000E-8	0.001991
2.740000E-8	0.002741
2.745000E-8	0.003566
2.750000E-8	0.004288
2.755000E-8	0.004759
2.760000E-8	0.005141
2.765000E-8	0.005409
2.770000E-8	0.005450
2.775000E-8	0.005203
2.780000E-8	0.004772
2.785000E-8	0.004275
2.790000E-8	0.003497
2.795000E-8	0.002919
2.800000E-8	0.002156
2.805000E-8	0.001400
2.810000E-8	0.000706
2.815000E-8	0.000250
2.820000E-8	-7.500000E-5
2.825000E-8	-0.000284
2.830000E-8	-0.000278
2.835000E-8	-0.000163
2.840000E-8	7.187500E-5
2.845000E-8	0.000594
2.850000E-8	0.001066
2.855000E-8	0.001831
2.860000E-8	0.002403
2.865000E-8	0.003034
2.870000E-8	0.003444
2.875000E-8	0.004131
2.880000E-8	0.004525
2.885000E-8	0.004866
2.890000E-8	0.005116
2.895000E-8	0.005097
2.900000E-8	0.004850
2.905000E-8	0.004678
2.910000E-8	0.004222
2.915000E-8	0.003734
2.920000E-8	0.003084
2.925000E-8	0.002453
2.930000E-8	0.001747
2.935000E-8	0.001153
2.940000E-8	0.000575
2.945000E-8	0.000200
2.950000E-8	-6.250000E-5
2.955000E-8	-0.000166
2.960000E-8	-0.000147
2.965000E-8	-6.250000E-5
2.970000E-8	0.000287
2.975000E-8	0.000809
2.980000E-8	0.001319
2.985000E-8	0.001984
2.990000E-8	0.002600
2.995000E-8	0.003325
3.000000E-8	0.003928
3.005000E-8	0.004500
3.010000E-8	0.004800
3.015000E-8	0.005084
3.020000E-8	0.005084
3.025000E-8	0.005084
3.030000E-8	0.004778
3.035000E-8	0.004341
3.040000E-8	0.003728
3.045000E-8	0.003259
3.050000E-8	0.002609
3.055000E-8	0.002000
3.060000E-8	0.001397
3.065000E-8	0.000913
3.070000E-8	0.000350
3.075000E-8	2.187500E-5
3.080000E-8	-0.000175
3.085000E-8	-0.000191
3.090000E-8	6.875000E-5
3.095000E-8	0.000394
3.100000E-8	0.000766
3.105000E-8	0.001316
3.110000E-8	0.001884
3.115000E-8	0.002575
3.120000E-8	0.003138
3.125000E-8	0.003800
3.130000E-8	0.004206
3.135000E-8	0.004609
3.140000E-8	0.004763
3.145000E-8	0.004903
3.150000E-8	0.004741
3.155000E-8	0.004513
3.160000E-8	0.004203
3.165000E-8	0.003709
3.170000E-8	0.003162
3.175000E-8	0.002700
3.180000E-8	0.002022
3.185000E-8	0.001581
3.190000E-8	0.000966
3.195000E-8	0.000622
3.200000E-8	0.000231
3.205000E-8	-4.375000E-5
3.210000E-8	-0.000131
3.215000E-8	3.750000E-5
3.220000E-8	0.000144
3.225000E-8	0.000569
3.230000E-8	0.001063
3.235000E-8	0.001559
3.240000E-8	0.002056
3.245000E-8	0.002800
3.250000E-8	0.003297
3.255000E-8	0.003975
3.260000E-8	0.004366
3.265000E-8	0.004669
3.270000E-8	0.004741
3.275000E-8	0.004753
3.280000E-8	0.004563
3.285000E-8	0.004356
3.290000E-8	0.003838
3.295000E-8	0.003334
3.300000E-8	0.002759
3.305000E-8	0.002228
3.310000E-8	0.001597
3.315000E-8	0.001063
3.320000E-8	0.000684
3.325000E-8	0.000366
3.330000E-8	0.000131
3.335000E-8	0.000144
3.340000E-8	0.000228
3.345000E-8	0.000606
3.350000E-8	0.000900
3.355000E-8	0.001434
3.360000E-8	0.001847
3.365000E-8	0.002419
3.370000E-8	0.002919
3.375000E-8	0.003503
3.380000E-8	0.004038
3.385000E-8	0.004447
3.390000E-8	0.004731
3.395000E-8	0.004734
3.400000E-8	0.004763
3.405000E-8	0.004669
3.410000E-8	0.004341
3.415000E-8	0.004078
3.420000E-8	0.003497
3.425000E-8	0.003034
3.430000E-8	0.002263
3.435000E-8	0.001738
3.440000E-8	0.001138
3.445000E-8	0.000772
3.450000E-8	0.000391
3.455000E-8	0.000163
3.460000E-8	0.000191
3.465000E-8	0.000169
3.470000E-8	0.000441
3.475000E-8	0.000881
3.480000E-8	0.001219
3.485000E-8	0.001991
3.490000E-8	0.002491
3.495000E-8	0.003128
3.500000E-8	0.003753
3.505000E-8	0.004300
3.510000E-8	0.004569
3.515000E-8	0.004819
3.520000E-8	0.004931
3.525000E-8	0.004872
3.530000E-8	0.004803
3.535000E-8	0.004459
3.540000E-8	0.004006
3.545000E-8	0.003587
3.550000E-8	0.002953
3.555000E-8	0.002363
3.560000E-8	0.001841
3.565000E-8	0.001269
3.570000E-8	0.000850
3.575000E-8	0.000675
3.580000E-8	0.000431
3.585000E-8	0.000556
3.590000E-8	0.000616
3.595000E-8	0.000894
3.600000E-8	0.001269
3.605000E-8	0.001684
3.610000E-8	0.002147
3.615000E-8	0.002644
3.620000E-8	0.002953
3.625000E-8	0.003509
3.630000E-8	0.003838
3.635000E-8	0.004106
3.640000E-8	0.004244
3.645000E-8	0.004456
3.650000E-8	0.004456
3.655000E-8	0.004397
3.660000E-8	0.004169
3.665000E-8	0.003791
3.670000E-8	0.003306
3.675000E-8	0.002891
3.680000E-8	0.002269
3.685000E-8	0.001725
3.690000E-8	0.001347
3.695000E-8	0.000941
3.700000E-8	0.000606
3.705000E-8	0.000438
3.710000E-8	0.000328
3.715000E-8	0.000463
3.720000E-8	0.000681
3.725000E-8	0.000991
3.730000E-8	0.001359
3.735000E-8	0.001738
3.740000E-8	0.002162
3.745000E-8	0.002759
3.750000E-8	0.003284
3.755000E-8	0.003606
3.760000E-8	0.004234
3.765000E-8	0.004509
3.770000E-8	0.004788
3.775000E-8	0.004969
3.780000E-8	0.004850
3.785000E-8	0.004619
3.790000E-8	0.004338
3.795000E-8	0.003919
3.800000E-8	0.003256
3.805000E-8	0.002819
3.810000E-8	0.002237
3.815000E-8	0.001756
3.820000E-8	0.001275
3.825000E-8	0.001144
3.830000E-8	0.000856
3.835000E-8	0.000766
3.840000E-8	0.000891
3.845000E-8	0.001128
3.850000E-8	0.001281
3.855000E-8	0.001628
3.860000E-8	0.002184
3.865000E-8	0.002713
3.870000E-8	0.003103
3.875000E-8	0.003613
3.880000E-8	0.003978
3.885000E-8	0.004356
3.890000E-8	0.004347
3.895000E-8	0.004475
3.900000E-8	0.004444
3.905000E-8	0.004319
3.910000E-8	0.003969
3.915000E-8	0.003806
3.920000E-8	0.003419
3.925000E-8	0.002994
3.930000E-8	0.002475
3.935000E-8	0.001884
3.940000E-8	0.001437
3.945000E-8	0.001175
3.950000E-8	0.000775
3.955000E-8	0.000572
3.960000E-8	0.000450
3.965000E-8	0.000506
3.970000E-8	0.000597
3.975000E-8	0.001000
3.980000E-8	0.001391
3.985000E-8	0.001903
3.990000E-8	0.002266
3.995000E-8	0.002763
4.000000E-8	0.003150
4.005000E-8	0.003700
4.010000E-8	0.003966
4.015000E-8	0.004216
4.020000E-8	0.004272
4.025000E-8	0.004406
4.030000E-8	0.004409
4.035000E-8	0.004122
4.040000E-8	0.003819
4.045000E-8	0.003434
4.050000E-8	0.002956
4.055000E-8	0.002534
4.060000E-8	0.001975
4.065000E-8	0.001538
4.070000E-8	0.001197
4.075000E-8	0.000853
4.080000E-8	0.000559
4.085000E-8	0.000612
4.090000E-8	0.000534
4.095000E-8	0.000809
4.100000E-8	0.001119
4.105000E-8	0.001603
4.110000E-8	0.001963
4.115000E-8	0.002506
4.120000E-8	0.002834
4.125000E-8	0.003372
4.130000E-8	0.003716
4.135000E-8	0.004056
4.140000E-8	0.004253
4.145000E-8	0.004403
4.150000E-8	0.004250
4.155000E-8	0.004253
4.160000E-8	0.004169
4.165000E-8	0.003769
4.170000E-8	0.003475
4.175000E-8	0.003081
4.180000E-8	0.002644
4.185000E-8	0.002400
4.190000E-8	0.001966
4.195000E-8	0.001538
4.200000E-8	0.001156
4.205000E-8	0.000981
4.210000E-8	0.000928
4.215000E-8	0.000869
4.220000E-8	0.001009
4.225000E-8	0.001141
4.230000E-8	0.001466
4.235000E-8	0.001866
4.240000E-8	0.002178
4.245000E-8	0.002616
4.250000E-8	0.002988
4.255000E-8	0.003397
4.260000E-8	0.003769
4.265000E-8	0.003975
4.270000E-8	0.004128
4.275000E-8	0.004309
4.280000E-8	0.004131
4.285000E-8	0.004016
4.290000E-8	0.003716
4.295000E-8	0.003434
4.300000E-8	0.003038
4.305000E-8	0.002713
4.310000E-8	0.002197
4.315000E-8	0.001816
4.320000E-8	0.001413
4.325000E-8	0.001219
4.330000E-8	0.000975
4.335000E-8	0.000984
4.340000E-8	0.000994
4.345000E-8	0.001197
4.350000E-8	0.001356
4.355000E-8	0.001631
4.360000E-8	0.001841
4.365000E-8	0.002275
